WellName:  1API 0001  PR
Field:     PR-01
Operator:  PETROBRAS
Country:   BRA
RunNumber: 0

DEPT       GR         CALI       FFDC       NFDC       RHOB       DRHO        NPHI       FCNL       NCNL       TENS       
M          GAPI       IN         CPS        CPS        G/CC       G/CC        %LS        CPS        CPS        LB         
4033.315   0.0        8.43000    271.500    444.0000   2.591000   0.001000    19.02000   216.9000   423.7000   4316.000   
4033.163   67.2000    8.42000    278.200    447.9000   2.581000   0.005000    19.28000   226.2000   430.9000   4263.000   
4033.010   61.9000    8.42000    281.100    449.6000   2.578000   0.007000    19.32000   225.2000   420.0000   4205.000   
4032.858   70.0000    8.43000    280.900    447.9000   2.580000   0.005000    19.21000   226.5000   418.7000   4184.000   
4032.705   91.2000    8.42000    279.700    443.8000   2.579000   0.001000    19.10000   220.4000   427.1000   4201.000   
4032.553   113.2000   8.42000    278.700    441.9000   2.577000   0.0         19.15000   217.2000   418.4000   4228.000   
4032.400   122.1000   8.41000    278.000    443.3000   2.577000   0.001000    19.39000   217.2000   417.2000   4256.000   
4032.248   121.1000   8.43000    277.200    445.8000   2.582000   0.007000    19.52000   224.1000   423.3000   4256.000   
4032.096   119.5000   8.43000    274.500    448.8000   2.594000   0.013000    19.41000   226.6000   428.3000   4247.000   
4031.943   118.8000   8.41000    270.200    449.0000   2.607000   0.015000    19.11000   227.9000   425.1000   4235.000   
4031.791   119.1000   8.43000    267.900    446.8000   2.613000   0.013000    18.89000   223.8000   423.0000   4233.000   
4031.639   119.9000   8.41000    268.000    444.6000   2.613000   0.011000    18.93000   224.2000   427.5000   4247.000   
4031.486   120.0000   8.41000    266.600    444.4000   2.615000   0.016000    19.02000   226.3000   421.5000   4235.000   
4031.333   119.4000   8.49000    263.400    454.1000   2.623000   0.035000    18.96000   223.9000   418.2000   4252.000   
4031.181   119.0000   8.55000    264.500    479.8000   2.639000   0.068000    18.76000   228.0000   414.4000   4324.000   
4031.029   119.1000   8.57000    271.800    506.3000   2.661000   0.100000    18.48000   227.1000   406.1000   4378.000   
4030.876   119.0000   8.57000    277.900    516.2000   2.678000   0.114000    18.07000   228.2000   416.8000   4329.000   
4030.724   118.3000   8.67000    285.700    524.2999   2.668000   0.122000    17.51000   232.5000   423.3000   4422.000   
4030.572   117.8000   8.73000    310.700    559.4000   2.627000   0.149000    16.94000   247.9000   409.0000   4479.000   
4030.419   117.9000   8.91000    355.700    619.5000   2.585000   0.199000    16.01000   252.4000   419.6000   4528.000   
4030.267   117.8000   8.95000    400.300    669.4000   2.573000   0.248000    14.73000   290.1000   452.2000   4590.000   
4030.115   117.0000   8.96000    419.500    689.5000   2.594000   0.275000    13.00000   322.0000   505.6000   4641.000   
4029.962   116.7000   8.96000    408.400    669.4000   2.635000   0.265000    10.97000   389.6000   507.6000   4523.000   
4029.810   116.8000   8.95000    373.300    603.7999   2.677000   0.214000    8.73000    501.9000   556.2999   4338.000   
4029.657   117.0000   9.24000    323.400    521.9000   2.705000   0.139000    6.36000    517.4000   610.7000   4150.000   
4029.505   117.4000   9.39000    275.600    465.4000   2.716000   0.078000    5.12000    450.0000   611.7999   4115.000   
4029.353   118.4000   9.37000    244.700    448.4000   2.721000   0.050000    5.89000    357.4000   515.6000   4151.000   
4029.200   118.8000   9.37000    233.100    448.2000   2.726000   0.044000    8.59000    276.4000   446.0000   4207.000   
4029.048   117.2000   9.37000    231.400    446.6000   2.727000   0.041000    12.51000   208.0000   396.1000   4237.000   
4028.896   114.0000   9.38000    234.500    450.8000   2.714000   0.044000    16.64000   176.6000   342.1000   4245.000   
4028.743   110.1000   9.24000    246.300    479.9000   2.678000   0.063000    19.67000   172.5000   318.6000   4231.000   
4028.590   103.2000   8.97000    286.800    527.7999   2.616000   0.093000    19.60000   235.2000   375.4000   4216.000   
4028.438   92.8000    9.19000    348.200    552.7999   2.555000   0.108000    14.95000   373.5000   472.5000   4206.000   
4028.286   84.5000    9.04000    378.800    531.1000   2.526000   0.092000    9.11000    481.3000   568.2999   4240.000   
4028.133   81.1000    8.98000    355.100    487.0000   2.537000   0.055000    5.10000    530.6000   658.2000   4255.000   
4027.981   77.8000    8.97000    308.400    475.5000   2.536000   0.016000    4.12000    505.8000   630.6000   4308.000   
4027.829   69.1000    8.97000    344.600    515.1000   2.414000   -0.013000   5.66000    344.5000   475.4000   4355.000   
4027.676   56.9000    9.16000    552.900    572.5000   2.156000   -0.030000   9.03000    196.0000   353.4000   4402.000   
4027.524   46.8000    15.27000   901.600    611.2999   1.875000   -0.047000   10.58000   149.5000   326.4000   4435.000   
4027.371   40.2000    17.60000   1259.100   617.2000   1.662000   -0.071000   15.30000   133.3000   329.7000   4492.000   
4027.219   35.5000    17.58000   1491.100   609.0000   1.531000   -0.091000   20.12000   132.6000   302.9000   4508.000   
4027.066   33.0000    17.59000   1583.200   606.1000   1.466000   -0.100000   22.67000   120.3000   285.2000   4261.000   
4026.914   32.7000    17.60000   1598.500   605.5000   1.447000   -0.101000   23.87000   111.7000   260.0000   4200.000   
4026.762   33.6000    17.59000   1584.300   602.0000   1.448000   -0.103000   25.33000   84.0000    249.5000   4307.000   
4026.609   34.2000    17.58000   1568.000   598.7999   1.452000   -0.103000   28.48000   72.2000    245.0000   4361.000   
4026.457   34.4000    17.58000   1554.200   600.2000   1.460000   -0.094000   34.68000   66.6000    247.0000   4412.000   
4026.305   35.2000    17.59000   1517.900   606.4000   1.487000   -0.073000   41.87000   75.0000    246.0000   4464.000   
4026.152   36.6000    17.60000   1417.200   611.7999   1.550000   -0.043000   46.75000   69.6000    243.1000   4416.000   
4026.000   37.8000    17.59000   1250.200   613.6000   1.647000   -0.017000   48.23000   70.5000    238.2000   4439.000   
4025.847   38.4000    17.59000   1095.900   615.9000   1.739000   -0.004000   47.49000   68.6000    215.6000   4334.000   
4025.695   38.0000    17.60000   1041.000   619.5000   1.781000   -0.005000   43.57000   85.2000    331.3000   4252.000   
4025.542   37.1000    17.59000   1086.100   621.6000   1.764000   -0.016000   35.74000   144.1000   288.2000   4196.000   
4025.390   36.0000    17.59000   1164.100   619.7999   1.719000   -0.027000   27.30000   126.4000   279.2000   4211.000   
4025.238   35.5000    17.60000   1222.400   616.0000   1.678000   -0.036000   22.67000   128.7000   284.4000   4251.000   
4025.085   35.6000    17.59000   1258.200   613.7999   1.650000   -0.044000   20.25000   131.0000   287.3000   4323.000   
4024.933   35.3000    17.59000   1284.400   611.5000   1.630000   -0.051000   18.95000   134.9000   287.1000   4373.000   
4024.781   34.0000    17.59000   1304.200   607.7000   1.613000   -0.058000   17.77000   151.4000   312.7000   4416.000   
4024.628   31.8000    17.60000   1319.700   604.2000   1.603000   -0.058000   16.44000   163.7000   313.5000   4463.000   
4024.476   30.7000    17.59000   1307.400   601.7999   1.614000   -0.046000   15.36000   155.3000   322.7000   4508.000   
4024.323   31.7000    17.59000   1218.400   604.4000   1.668000   -0.022000   15.10000   153.4000   311.7000   4327.000   
4024.171   32.9000    17.59000   1068.500   610.7000   1.754000   -0.005000   15.99000   136.2000   295.0000   4451.000   
4024.019   33.1000    17.60000   984.500    613.4000   1.802000   -0.015000   17.89000   119.6000   292.0000   4469.000   
4023.866   32.6000    17.60000   1068.600   608.7000   1.756000   -0.046000   20.94000   95.0000    270.2000   4508.000   
4023.714   32.6000    17.58000   1260.000   600.4000   1.646000   -0.077000   25.31000   80.1000    239.6000   4567.000   
4023.562   32.7000    17.60000   1413.800   596.6000   1.551000   -0.094000   31.50000   74.2000    217.0000   4614.000   
4023.409   32.2000    17.58000   1469.900   596.0000   1.504000   -0.100000   37.16000   73.0000    234.3000   4666.000   
4023.256   32.0000    17.60000   1480.700   595.5000   1.489000   -0.103000   39.53000   73.5000    228.4000   4725.000   
4023.104   32.1000    17.57000   1496.300   595.4000   1.480000   -0.105000   39.74000   67.6000    212.7000   4777.000   
4022.952   32.0000    17.59000   1520.700   597.2999   1.469000   -0.107000   40.41000   65.6000    202.9000   4767.000   
4022.799   31.3000    17.60000   1546.300   600.9000   1.458000   -0.105000   42.17000   59.4000    206.8000   4635.000   
4022.647   30.3000    17.59000   1566.300   603.5000   1.452000   -0.103000   44.22000   58.8000    208.8000   4284.000   
4022.495   29.2000    17.59000   1581.600   605.4000   1.449000   -0.101000   46.18999   60.7000    197.0000   4157.000   
4022.342   28.4000    17.60000   1594.400   607.2999   1.445000   -0.101000   48.60000   53.4000    203.9000   4157.000   
4022.190   28.0000    17.59000   1602.100   607.9000   1.443000   -0.100000   52.53000   48.0000    200.9000   4244.000   
4022.037   27.8000    17.59000   1603.500   607.5000   1.443000   -0.099000   58.81000   50.0000    205.7000   4293.000   
4021.885   27.6000    17.60000   1602.700   608.2000   1.444000   -0.097000   66.12999   50.9000    195.0000   4330.000   
4021.732   28.5000    17.59000   1598.500   609.2000   1.448000   -0.095000   71.06999   50.0000    200.0000   4330.000   
4021.580   31.0000    17.60000   1579.900   608.4000   1.457000   -0.093000   71.62000   47.1000    201.9000   4328.000   
4021.428   33.6000    17.59000   1554.100   605.4000   1.468000   -0.093000   68.34000   57.8000    198.0000   4269.000   
4021.275   34.6000    17.59000   1529.300   601.2999   1.478000   -0.093000   61.83000   59.2000    218.8000   4256.000   
4021.123   33.2000    17.60000   1498.700   597.9000   1.489000   -0.093000   54.50000   65.3000    220.7000   4262.000   
4020.971   31.2000    17.58000   1461.400   596.2999   1.504000   -0.089000   49.71000   60.3000    207.0000   4322.000   
4020.818   30.0000    17.58000   1426.100   598.6000   1.520000   -0.083000   48.88000   57.0000    199.0000   4350.000   
4020.666   29.6000    17.60000   1409.100   604.1000   1.535000   -0.076000   50.71000   55.8000    210.0000   4348.000   
4020.513   30.1000    17.58000   1395.600   608.7000   1.549000   -0.070000   53.35000   55.0000    202.9000   4289.000   
4020.361   31.0000    16.58000   1378.500   608.6000   1.559000   -0.073000   57.79000   50.9000    208.8000   4281.000   
4020.208   31.5000    17.02000   1388.100   601.7999   1.552000   -0.086000   61.41000   50.9000    211.7000   4289.000   
4020.056   31.0000    17.61000   1431.100   591.1000   1.523000   -0.104000   64.45999   55.8000    206.9000   4334.000   
4019.904   30.8000    17.61000   1481.600   584.7999   1.487000   -0.115000   64.61000   58.4000    207.8000   4362.000   
4019.751   31.2000    17.60000   1512.200   588.5000   1.464000   -0.114000   60.47000   55.8000    207.8000   4376.000   
4019.599   31.5000    17.60000   1526.300   596.1000   1.458000   -0.108000   54.73000   64.7000    224.5000   4367.000   
4019.446   32.5000    17.61000   1536.700   599.6000   1.461000   -0.104000   48.81000   72.5000    201.9000   4375.000   
4019.294   36.6000    17.61000   1540.800   598.5000   1.463000   -0.105000   43.17000   68.6000    221.5000   4317.000   
4019.142   45.8000    17.60000   1542.300   597.1000   1.461000   -0.106000   38.10000   77.4000    217.6000   4297.000   
4018.989   58.5000    17.61000   1546.200   598.0000   1.460000   -0.102000   33.75999   86.2000    218.4000   4277.000   
4018.837   69.8000    17.60000   1538.900   600.5000   1.468000   -0.091000   30.29000   78.6000    234.6000   4297.000   
4018.685   75.8000    17.61000   1493.400   606.0000   1.499000   -0.070000   26.79000   100.0000   288.2000   4343.000   
4018.532   75.0000    17.42000   1395.500   614.7000   1.558000   -0.042000   21.54000   169.6000   497.0000   4373.000   
4018.380   68.1000    17.17000   1267.400   623.4000   1.638000   -0.015000   13.04000   517.4000   722.5000   4354.000   
4018.228   58.9000    16.88000   1158.100   630.5000   1.714000   0.005000    5.53000    593.1000   740.5000   4442.000   
4018.075   52.5000    16.76000   1103.900   636.5000   1.762000   0.014000    2.27000    594.0000   754.4000   4502.000   
4017.922   51.3000    16.63000   1100.900   640.9000   1.778000   0.017000    1.94000    608.9000   747.5000   4556.000   
4017.770   53.6000    16.64000   1117.600   644.1000   1.774000   0.017000    2.32000    586.4000   761.2999   4572.000   
4017.618   55.1000    16.63000   1132.900   645.6000   1.767000   0.018000    3.48000    427.7000   602.9000   4433.000   
4017.465   53.9000    16.62000   1145.200   640.6000   1.769000   0.021000    5.87000    245.6000   397.0000   4332.000   
4017.313   51.1000    14.09000   1097.800   617.2000   1.809000   0.027000    10.21000   256.8000   492.1000   4269.000   
4017.161   49.4000    9.78000    918.500    573.2999   1.924000   0.037000    14.34000   391.1000   551.4000   4290.000   
4017.008   50.2000    8.96000    653.800    527.2000   2.120000   0.045000    13.26000   449.5000   587.2999   4352.000   
4016.856   51.1000    8.89000    435.900    498.0000   2.332000   0.045000    9.85000    469.9000   580.1000   4377.000   
4016.703   50.3000    8.90000    348.500    488.5000   2.460000   0.036000    7.82000    430.6000   586.2000   4391.000   
4016.551   50.0000    8.90000    342.500    487.0000   2.487000   0.029000    7.52000    457.8000   601.9000   4396.000   
4016.398   52.0000    8.90000    347.500    486.0000   2.477000   0.026000    7.86000    446.6000   596.0000   4395.000   
4016.246   54.8000    8.90000    352.100    487.1000   2.466000   0.028000    8.23000    441.1000   578.4000   4365.000   
4016.094   56.5000    8.88000    355.400    493.0000   2.462000   0.037000    8.55000    424.5000   563.7000   4328.000   
4015.941   56.6000    8.82000    358.600    505.2000   2.466000   0.052000    8.79000    429.4000   565.6000   4357.000   
4015.789   55.4000    8.81000    362.800    516.4000   2.474000   0.065000    8.92000    408.8000   537.2000   4366.000   
4015.637   53.4000    8.80000    365.500    516.4000   2.484000   0.066000    9.07000    380.3000   501.9000   4395.000   
4015.484   52.2000    8.80000    362.300    504.0000   2.491000   0.054000    9.35000    359.8000   500.0000   4326.000   
4015.332   53.8000    8.81000    353.300    487.7000   2.492000   0.037000    9.67000    351.9000   497.0000   4337.000   
4015.179   56.9000    8.80000    342.800    478.2000   2.491000   0.026000    9.97000    346.5000   505.0000   4416.000   
4015.027   57.6000    8.81000    337.000    479.8000   2.488000   0.025000    10.08000   362.0000   513.4000   4455.000   
4014.875   55.4000    8.84000    339.900    487.7000   2.484000   0.032000    10.02000   370.1000   500.0000   4503.000   
4014.722   52.8000    8.84000    345.200    492.7000   2.485000   0.039000    9.91000    360.7000   510.6000   4489.000   
4014.570   53.0000    8.84000    344.900    490.6000   2.492000   0.041000    9.84000    354.3000   466.9000   4366.000   
4014.417   55.2000    8.84000    339.700    490.8000   2.499000   0.045000    9.97000    321.3000   466.9000   4298.000   
4014.265   56.9000    8.84000    341.100    505.6000   2.497000   0.059000    10.13000   331.0000   566.2999   4298.000   
4014.112   57.7000    8.84000    356.800    527.4000   2.491000   0.079000    9.91000    438.6000   527.4000   4269.000   
4013.960   58.8000    8.83000    372.500    534.1000   2.494000   0.089000    9.00000    448.0000   594.1000   4307.000   
4013.808   62.4000    8.82000    367.100    516.7999   2.513000   0.080000    7.46000    558.7999   600.0000   4354.000   
4013.655   68.1000    8.84000    340.800    491.6000   2.540000   0.061000    5.83000    561.7000   602.9000   4384.000   
4013.503   73.2000    8.85000    314.900    479.5000   2.557000   0.046000    4.63000    569.6000   612.7000   4391.000   
4013.351   76.7000    8.85000    310.900    491.0000   2.545000   0.051000    4.06000    555.7999   625.2000   4363.000   
4013.198   79.4000    8.88000    337.600    531.7999   2.504000   0.084000    4.08000    535.9000   626.7000   4293.000   
4013.046   81.5000    8.90000    394.300    596.5000   2.457000   0.143000    4.57000    529.7000   584.2999   4289.000   
4012.894   81.9000    8.90000    456.800    661.1000   2.443000   0.210000    5.33000    448.0000   513.7000   4352.000   
4012.741   80.1000    9.05000    481.600    696.4000   2.481000   0.262000    5.91000    421.5000   488.2000   4417.000   
4012.588   76.1000    9.19000    455.900    698.2999   2.555000   0.284000    6.17000    428.4000   504.9000   4413.000   
4012.436   71.9000    9.19000    411.300    675.7000   2.627000   0.272000    6.11000    416.6000   516.7999   4348.000   
4012.284   68.2000    9.18000    381.000    634.7999   2.659000   0.232000    5.87000    427.7000   517.0000   4305.000   
4012.131   64.0000    9.16000    365.800    583.1000   2.648000   0.175000    5.66000    459.0000   566.2999   4351.000   
4011.979   59.8000    9.05000    351.600    533.0000   2.614000   0.115000    5.72000    469.3000   582.1000   4397.000   
4011.827   56.7000    9.00000    338.400    501.2000   2.574000   0.069000    6.04000    438.6000   604.9000   4391.000   
4011.674   55.7000    8.99000    333.400    491.0000   2.536000   0.047000    6.88000    413.7000   598.0000   4364.000   
4011.521   56.2000    9.00000    338.900    494.8000   2.506000   0.042000    8.31000    398.0000   569.6000   4335.000   
4011.369   55.9000    8.97000    350.400    499.1000   2.485000   0.041000    9.78000    383.3000   528.4000   4338.000   
4011.217   53.8000    8.97000    359.900    498.2000   2.469000   0.041000    10.64000   368.6000   495.1000   4285.000   
4011.064   49.8000    8.97000    365.900    505.0000   2.458000   0.050000    10.51000   381.5000   480.3000   4278.000   
4010.912   46.1000    8.94000    371.900    519.1000   2.459000   0.067000    9.44000    417.6000   517.6000   4296.000   
4010.760   45.2000    8.92000    373.600    524.0000   2.476000   0.076000    7.76000    459.8000   567.9000   4343.000   
4010.607   47.7000    8.91000    363.500    511.3000   2.501000   0.069000    6.19000    518.4000   595.0000   4370.000   
4010.455   54.8000    8.92000    344.100    490.5000   2.522000   0.051000    5.31000    521.5000   609.7000   4370.000   
4010.303   68.8000    8.91000    326.200    476.7000   2.532000   0.035000    5.80000    365.0000   597.0000   4356.000   
4010.150   83.2000    8.90000    315.900    469.6000   2.538000   0.028000    8.08000    299.0000   553.2999   4347.000   
4009.998   83.8000    8.89000    306.800    465.3000   2.551000   0.028000    11.99000   270.8000   470.2000   4328.000   
4009.845   67.1000    8.90000    294.800    464.1000   2.571000   0.031000    15.97000   265.3000   446.6000   4338.000   
4009.693   45.1000    8.88000    285.500    465.1000   2.590000   0.034000    17.76000   279.6000   435.2000   4336.000   
4009.541   30.7000    8.90000    283.200    468.8000   2.598000   0.040000    16.81000   276.4000   436.6000   4331.000   
4009.388   24.6000    8.89000    287.700    481.2000   2.595000   0.053000    14.87000   269.3000   414.8000   4340.000   
